# Wavelength (micron), Monochromatic bond albedo
0.32 0.41
0.34 0.50
0.36 0.50
0.38 0.53 
0.40 0.61 
0.42 0.71
0.44 0.77 
0.46 0.79 
0.48 0.82 
0.50 0.83
0.55 0.85
0.60 0.85
0.80 0.85
1.00 0.85
1.20 0.85
1.50 0.82
1.75 0.78
2.20 0.70
2.40 0.64
2.85 0.080
3.00 0.055
3.20 0.035
3.40 0.040
3.60 0.0555
3.80 0.064